#
5
x
y
z
porosity
impedance
51 12 6 0.315 8754.48
51 12 7 0.309 8545.85
51 12 8 0.304 8341.22
24 50 1 0.292 7752.68
24 50 2 0.283 7663.65
24 50 3 0.253779 7644.15
24 50 4 0.259107 7658.44
0 4 5 0.324 6394.14
0 4 6 0.306 6535.19
71 80 7 0.314581 8546.87
71 80 8 0.312 8561.47
40 11 3 0.281 9204.04
40 11 4 0.301 8962.13
40 11 7 0.304 8775.5
40 11 8 0.317 8557.07
40 11 9 0.272 8249.47
84 6 2 0.269 9254.27
84 6 3 0.319 8936.03
19 35 1 0.278 9042.8
19 35 2 0.286 9222.36
69 114 0 0.291 8710.99
69 114 2 0.315 8278.49
69 114 3 0.2566 8098.95
69 114 4 0.31 7940.24
69 114 5 0.268 7805.64
69 114 8 0.304 7608.57
69 114 9 0.302 7608.56
99 51 1 0.263 8840.69
99 51 2 0.255 8824.67
44 34 6 0.299 7693.43
44 34 7 0.287 7642.95
44 34 8 0.325 7597.87
44 34 9 0.294 7556.49
31 54 4 0.308 9470.45
31 54 5 0.275 9105.9
31 54 6 0.301 8741.91
51 9 6 0.322 8600.02
51 9 7 0.306 8744.51
51 9 8 0.3258 8882.39
94 115 1 0.245221 8845.37
94 115 2 0.287 8587.12
94 115 3 0.271 8338.7
94 115 4 0.314 8133.23
94 115 5 0.289 8007.09
3 37 2 0.288554 7639.31
3 37 3 0.285 7353.15
3 37 4 0.297 7255.95
3 37 5 0.353 7344.63
3 37 6 0.31 7591.03
32 101 5 0.284 9511.93
32 101 6 0.3 9187.27
32 101 7 0.291 8780.2
32 101 8 0.265 8352.78
32 101 9 0.317 7979.34
46 50 0 0.309 8300.39
46 50 2 0.249348 7927.25
46 50 3 0.304 7798.84
46 50 6 0.311 7598.79
46 50 7 0.286 7587.72
46 50 8 0.32 7590.56
46 50 9 0.304 7600.43
29 20 4 0.294 7979.03
29 20 5 0.293 7984.11
37 125 5 0.253 7440.66
37 125 6 0.297 7155.93
37 125 8 0.2196 6632.43
53 9 6 0.303 8542.37
53 9 7 0.309 8591.16
53 9 8 0.302 8641.07
35 93 4 0.299 7846.1
35 93 8 0.302 7319.58
35 93 9 0.302 7420.89
56 73 7 0.273 8148.86
56 73 8 0.3 8328.38
89 111 3 0.311062 7674.02
89 111 4 0.315 7547.67
89 111 5 0.282 7624.56
89 111 7 0.2689 8125.58
89 111 8 0.219 8384.55
72 39 8 0.281 8176.51
60 19 8 0.247353 8255.38
60 19 9 0.278498 8244.64
72 21 7 0.301 8126.25
48 116 0 0.31 10049.7
48 116 1 0.29 9900.57
48 116 7 0.281 9237.45
48 116 8 0.238 9216.65
36 36 0 0.299 7447.8
36 36 3 0.33 7080.18
36 36 4 0.245186 7017.52
36 36 5 0.274 7005.74
36 36 7 0.327 7039.45
36 36 8 0.305 7083.49
40 118 5 0.277 8636.83
40 118 6 0.303 8443.77
62 18 7 0.266696 8506.99
62 18 8 0.279174 8467.53
62 18 9 0.321009 8405.58
83 58 2 0.27 9086.49
83 58 3 0.256526 9211.44
83 58 4 0.29 9121.01
83 58 5 0.292 8861.71
98 61 3 0.31 8928.97
98 61 4 0.282 8803.22
98 61 6 0.287 8300.9
98 61 7 0.293 8181.74
98 61 8 0.295 8232.74
98 61 9 0.322 8416.4
44 122 0 0.314 9941.4
44 122 1 0.296 9905.26
44 122 6 0.313 9251.43
44 122 7 0.286 8936.84
44 122 8 0.267 8603.23
52 74 0 0.279 8572.27
52 74 1 0.302 8050.3
52 74 5 0.283 7255.43
52 74 7 0.291 7842.87
52 74 8 0.266 8253.02
62 32 0 0.31 9602.95
62 32 1 0.274 9485.01
45 115 0 0.298 9583.76
45 115 1 0.277 9495.1
45 115 7 0.289 8255.57
45 115 8 0.271 7917.43
38 65 0 0.319319 8453.76
38 65 1 0.252035 8134.39
38 65 2 0.27 8013.45
38 65 3 0.304 8052.85
38 65 6 0.295 8442.66
43 64 0 0.212 9506.34
43 64 1 0.29318 8988.82
92 22 1 0.265 8249.71
92 22 2 0.271 8306.45
92 22 3 0.293 8443.11
64 63 0 0.29 9277.46
51 79 0 0.271 7619.3
51 79 1 0.313 7428.38
51 79 2 0.267 7381.23
51 79 3 0.281 7483.69
62 87 5 0.264 8708.73
62 87 7 0.263 8484.8
62 87 8 0.324 8401.73
69 99 0 0.303 9125.36
69 99 1 0.299 8818.43
69 99 2 0.303 8541.81
69 99 7 0.267 8317.33
69 99 8 0.306 8583.93
37 87 4 0.304 8024.39
37 87 6 0.2567 8538.15
37 87 7 0.295 8637.14
37 87 8 0.287108 8517.08
37 87 9 0.2026 8168.67
80 108 4 0.314 8141.86
80 108 5 0.255 7925.11
80 108 6 0.223 7739.66
80 108 7 0.269 7644.8
80 108 8 0.281 7685.65
88 34 6 0.279 8374.12
88 34 7 0.23 8246.31
92 129 1 0.27 4784.17
92 129 2 0.28 4661.2
76 101 0 0.325 8320.91
76 101 4 0.327 8341.63
76 101 5 0.278 8298.95
76 101 7 0.272 8179.66
76 101 8 0.295 8110.41
54 127 8 0.304 4932.44
54 127 9 0.295 4659.97
55 11 7 0.323 8131.05
55 11 8 0.281 8139.31
20 111 5 0.287 8107.66
20 111 6 0.255 8016.58
20 111 7 0.291 7922.29
45 58 0 0.297 8943.3
45 58 1 0.272 8729.51
45 58 7 0.301 8013.96
45 58 8 0.305 7888.32
98 3 6 0.292 6034.04
98 3 7 0.315 6125.48
31 90 4 0.307 7767.38
31 90 5 0.2876 7708.25
31 90 6 0.282 7717.98
31 90 7 0.275 7826.09
31 90 8 0.274 8009.18
31 90 9 0.304 8245.58
16 16 3 0.272 9192.96
16 16 4 0.303 8819.69
16 16 6 0.294 8091.67
16 16 7 0.263 7820.5
16 16 8 0.293 7619.38
16 16 9 0.253 7497.54
39 87 6 0.285 8108.54
39 87 7 0.288 8299.14
39 87 8 0.263216 8447.09
39 87 9 0.2026 8474.82
9 25 1 0.248 8071.26
9 25 2 0.203 7910.3
9 25 3 0.261 7933.56
9 25 4 0.285 8101.5
9 25 6 0.3148 8494.28
9 25 7 0.240445 8607.51
68 116 0 0.298 9909.26
68 116 2 0.305 9611.1
68 116 3 0.286 9418.14
68 116 4 0.304 9212.23
68 116 5 0.268 8981.18
68 116 8 0.292 8279.81
68 116 9 0.29 8070.15
20 27 0 0.322 9138.23
20 27 6 0.280293 7673.04
20 27 7 0.287 7401.26
20 27 8 0.297 7212.3
20 27 9 0.285 7124.67
79 60 4 0.283 8783.73
79 60 5 0.297 8786.5
81 67 1 0.28 8184.15
81 67 2 0.286 8028.3
81 67 3 0.277 7927.88
84 81 1 0.264 9299.64
84 81 2 0.289 9364.56
84 81 3 0.252 9363.72
84 81 4 0.292 9263.49
84 81 6 0.266 8994.36
84 81 7 0.244 8927.14
84 81 9 0.315 9129.29
59 0 7 0.303 4275.54
59 0 8 0.297 4496.21
59 0 9 0.275 4835.24
52 68 0 0.282 8824.15
52 68 1 0.287 8486.62
52 68 6 0.272 7449.72
52 68 7 0.282 7486.73
52 68 8 0.271 7628.17
75 20 8 0.291 8316.43
68 3 8 0.283 5830.63
41 120 5 0.28 9068.96
41 120 6 0.299 8839.04
41 120 7 0.274 8583.58
41 120 8 0.287 8307.24
68 80 4 0.29 8675.53
68 80 5 0.298 8550.27
68 80 7 0.286739 8501.28
68 80 8 0.316 8554.87
84 109 4 0.317 7835.52
84 109 5 0.286 7812.89
84 109 7 0.268 8018.91
84 109 8 0.315416 8084.39
30 1 0 0.321 5035.61
30 1 1 0.261 4928.21
30 1 5 0.303 4969.39
30 1 7 0.294 5085.23
30 1 8 0.287 5143.28
30 1 9 0.309 5192.35
86 34 4 0.296 8468.2
86 34 5 0.28 8428.54
86 34 8 0.307 8263.97
86 34 9 0.305 8181.37
90 55 3 0.292 8478.72
90 55 4 0.286 8640.83
90 55 7 0.272 8368.76
90 55 8 0.281 8146.43
60 122 4 0.326 9369.36
60 122 5 0.291 9316.12
60 122 8 0.297 9066.02
60 122 9 0.307 8960.28
78 122 7 0.29 8564.21
78 122 8 0.283 8268.05
67 28 2 0.3 8871.32
67 28 3 0.266 8892.45
67 28 4 0.302 8951.12
10 31 1 0.291 9198.68
10 31 2 0.234014 8544.04
10 31 3 0.295 8081.45
10 31 4 0.269 7896.86
74 32 2 0.278 8007.92
74 32 3 0.282 7942.71
74 32 4 0.317 7916.4
74 32 7 0.298 8072.34
74 32 9 0.285 8191.75
0 96 1 0.265 9182.96
0 96 2 0.223 8978.56
0 96 5 0.313 8492.07
0 96 6 0.301 8402.85
74 115 0 0.345 9668.26
5 41 3 0.274 7287.93
5 41 4 0.277 7432.05
5 41 5 0.345 7673.74
5 41 6 0.307 7990.15
51 95 2 0.279 8744.21
51 95 3 0.312 8662.82
64 25 3 0.279 9397.96
64 25 4 0.287 9428.83
41 83 2 0.266 8132.49
41 83 3 0.276 8362.61
41 83 6 0.276 8603.27
41 83 7 0.285 8378.15
41 83 8 0.240802 8028.98
41 83 9 0.29394 7720.26
24 77 4 0.303 8729.31
24 77 7 0.29 9358.84
24 77 8 0.291 9146.72
24 77 9 0.305 8875.01
53 22 3 0.33 8586.03
53 22 4 0.281 8681.85
70 49 7 0.272 8345.86
70 49 8 0.29 8370.46
80 33 4 0.296 7994.96
80 33 5 0.305 8012.07
80 33 8 0.29 8337.05
80 33 9 0.281 8412.34
33 19 0 0.279 8982.54
33 19 1 0.288 8867.19
42 97 1 0.271 9343.83
42 97 3 0.297 9309.97
42 97 4 0.278 9291.72
42 97 6 0.3 9239.12
42 97 7 0.223 9179.86
42 97 8 0.305 9096.01
42 97 9 0.28 8980.67
70 85 7 0.231311 8626.31
70 85 8 0.311 8545.81
64 69 0 0.297 8375.26
80 89 1 0.297 9307.26
80 89 2 0.296 9174.17
80 89 3 0.262 9061.66
80 89 4 0.316 8892.72
80 89 8 0.288 8572.61
80 89 9 0.315 8688.37
61 37 0 0.307 8678.04
61 37 1 0.271 8521.73
36 28 3 0.302018 8940.49
36 28 4 0.240181 8869.73
36 28 5 0.278 8754.33
36 28 6 0.275 8606.94
36 28 7 0.287 8431.85
36 28 8 0.314 8223.01
3 124 1 0.269 8070.23
3 124 2 0.28 7585.63
3 124 3 0.324 7131.06
3 124 4 0.305 6817.26
18 28 0 0.308 9531.78
18 28 6 0.296 8417.17
18 28 7 0.296 7992.24
18 28 8 0.291 7666.12
18 28 9 0.277 7470.16
50 33 8 0.335 8042.93
50 33 9 0.295 7911.72
62 120 3 0.29 8854.06
62 120 4 0.314 8734.75
62 120 5 0.294 8611.35
62 120 8 0.285 8249.84
62 120 9 0.296 8136.65
20 19 0 0.311 8593.74
20 19 7 0.285 8554.47
62 35 0 0.311 8401.93
62 35 1 0.269 8311.08
32 118 6 0.284 8908.73
32 118 7 0.268 8850.56
35 110 5 0.2362 7933.57
35 110 6 0.295 7627.01
38 72 2 0.276 9116.65
38 72 3 0.302 8602.78
38 72 4 0.285 8266.71
38 72 5 0.272 8103.28
38 72 6 0.287 8088.67
38 72 8 0.267 8315.48
38 72 9 0.306 8496.93
98 59 1 0.278295 9279.01
98 59 2 0.263 8975.14
98 59 6 0.308 8922.35
98 59 7 0.287 8929.4
98 59 8 0.29 8637.96
98 59 9 0.329 8277.96
90 5 1 0.264 7961.78
90 5 2 0.255 7836.32
62 118 3 0.277 7955.32
62 118 4 0.294 7861.18
62 118 8 0.282 7663.57
62 118 9 0.288 7652.07
45 27 3 0.307 8643.22
45 27 4 0.296 8587.31
45 27 6 0.314 8658.52
45 27 7 0.304 8725.84
45 27 8 0.307 8777.91
45 27 9 0.28 8737.11
66 129 0 0.255436 4109.09
66 129 2 0.29 4020.74
66 129 3 0.272 3991.85
28 31 0 0.322 10089.9
28 31 7 0.31 7623.15
28 31 8 0.294 7369.93
28 31 9 0.273 7212.74
56 109 4 0.317 9658.38
56 109 8 0.299 9137.98
56 109 9 0.272 9037.13
51 101 0 0.294 9001.21
51 101 1 0.3 9086.22
51 101 8 0.233 9150.64
51 101 9 0.277 9012.86
60 19 8 0.29767 8255.38
60 19 9 0.319678 8244.64
28 121 5 0.28 8866.5
28 121 6 0.269 8750.33
28 121 7 0.279 8640.09
96 73 3 0.305 8647.23
96 73 4 0.273 8545.8
37 22 3 0.30599 8874.36
37 22 4 0.302029 8708.47
37 22 8 0.292 8282.58
37 22 9 0.298 8246.35
67 84 7 0.2522 8911.96
67 84 8 0.328 8951.28
23 47 1 0.262 9456.46
23 47 2 0.29 9414.33
23 47 7 0.29 7972.46
23 47 8 0.3 7757.01
23 47 9 0.279 7668.3
11 22 3 0.29 9104.48
11 22 4 0.271 8546.92
11 22 8 0.320762 7909.42
11 22 9 0.254 8138.57
28 44 1 0.322861 10082.2
28 44 2 0.2882 9474.45
28 44 5 0.268 8038.91
28 44 6 0.282 7748.93
28 44 7 0.3 7521.73
28 44 8 0.335 7340.23
28 44 9 0.299 7207
25 111 8 0.267766 7742.8
25 111 9 0.287 7588.25
11 86 6 0.303 9125.45
11 86 7 0.291 9019.7
64 61 0 0.273 9278.74
25 124 7 0.3 7560.25
99 118 1 0.26 8247.16
99 118 2 0.279 8114.22
99 118 3 0.276 8021.14
99 118 5 0.295 7988.47
99 118 6 0.319976 8028.86
99 118 7 0.262 8132.78
99 118 8 0.29 8253.17
99 118 9 0.3 8399.69
44 71 0 0.307888 8704.94
44 71 1 0.262425 8608.31
44 71 5 0.249423 7081.28
44 71 8 0.268 8672.05
44 71 9 0.316 9242.09
18 81 6 0.284 8844.8
18 81 7 0.3215 9026.47
30 120 4 0.308 9112.49
30 120 5 0.269 9064.29
30 120 6 0.282 9023.02
21 47 2 0.297 9102.39
21 47 8 0.307 7659.54
21 47 9 0.277 7556.62
87 22 2 0.233 8086.85
87 22 3 0.3 8002.55
40 106 7 0.27 8800.24
7 44 3 0.283 7451.31
7 44 4 0.285 7751.16
7 44 5 0.348 8154.19
7 44 6 0.301 8564.7
6 8 1 0.238 7857.01
6 8 3 0.255 7852.87
6 8 5 0.343 7884.17
6 8 6 0.286 7921.92
72 37 8 0.273 8026.72
69 74 4 0.283 8472.04
69 74 5 0.292 8481.62
88 37 4 0.2173 8179.23
88 37 5 0.265 7998.72
38 7 3 0.268 8558.02
38 7 4 0.326 8361.62
7 33 2 0.329555 7711.75
7 33 3 0.271 7885.03
7 33 4 0.29 8086.22
7 33 5 0.3537 8261.22
7 33 6 0.302 8379.26
52 110 0 0.281 8995.84
52 110 1 0.297 8970.69
52 110 3 0.312 9024.45
52 110 4 0.309 9079.29
52 110 7 0.265 9175.94
52 110 8 0.257 9119.89
63 121 3 0.279 7730.89
63 121 4 0.284 7737.66
63 121 5 0.294 7755.02
63 121 7 0.292 7867.93
63 121 8 0.3 7939.89
63 121 9 0.284 8009.09
83 10 2 0.271 8122.64
83 10 3 0.304 7580.92
47 50 1 0.301 7827.74
47 50 2 0.277 7734.37
47 50 3 0.303 7676.34
47 50 7 0.287 7551.77
47 50 8 0.308 7549.4
47 50 9 0.303 7551.22
40 56 2 0.24613 8266.91
40 56 3 0.313 8316.92
40 56 4 0.269 8349.25
25 82 3 0.29 9026.75
25 82 4 0.295 9221.46
50 129 6 0.306 3574.93
50 129 7 0.267 3437.91
77 4 5 0.287 7327.83
77 4 7 0.300803 7366.2
77 4 8 0.264 7298.16
32 118 6 0.284 8908.73
32 118 7 0.268 8850.56
69 60 0 0.294 8878.74
87 49 2 0.294 8529.37
87 49 3 0.278 8343.51
87 49 4 0.274 8293.27
87 49 5 0.2436 8386.41
87 49 7 0.273 8719.26
87 49 8 0.313 8789.96
85 95 6 0.269 7892.83
85 95 7 0.266 7954.7
99 22 2 0.268 9535.61
99 22 3 0.29 9552.95
99 22 8 0.303 8625.21
65 3 7 0.296 5840.84
65 3 8 0.286 5917.67
64 54 8 0.298 8312.09
42 56 2 0.206 8830.54
42 56 3 0.295 8559.09
42 56 4 0.27 8351
74 43 7 0.274 8940.05
74 43 8 0.266 8735.63
59 128 0 0.280152 5629.12
59 128 3 0.277 5232.28
59 128 4 0.304 5071.82
59 128 5 0.277 4903.77
59 128 8 0.296 4431.72
59 128 9 0.326 4306.03
86 47 3 0.278 9110.71
86 47 4 0.272 8889.78
86 47 5 0.275 8701.11
86 47 7 0.258 8530.71
86 47 8 0.32 8565.19
87 46 3 0.279 8845.98
87 46 4 0.287 8620.39
87 46 5 0.252 8483
87 46 7 0.261 8516.72
87 46 8 0.3191 8605.51
2 107 1 0.255 7885.89
2 107 2 0.247 7861.84
2 107 3 0.306 8042.91
2 107 4 0.297 8321.82
13 86 6 0.295 9177.9
13 86 7 0.304 9117.85
38 42 0 0.314 7939.35
38 42 2 0.255 7536.33
38 42 3 0.308 7393.58
38 42 4 0.28 7346.58
38 42 6 0.301 7347.4
38 42 7 0.326 7393.86
38 42 8 0.316 7476.39
38 42 9 0.32363 7558.92
54 81 0 0.301632 8609.49
54 81 4 0.240519 8167.01
54 81 5 0.25092 8152.33
